Sensor Model:  QMCI 2 Wire Block                     
Serial Number:  162
Data Format:    2      (Volts vs. Kelvin)                     
SetPoint Limit: 475.0      (Kelvin)                     
Temperature coefficient:  1 (Negative)                     
Number of Breakpoints:   136

 No.   Units      Temperature (K)
1	0.61352	280.00
2	0.61860	278.00
3	0.63662	270.00
4	0.65839	260.00
5	0.68080	250.00
6	0.70339	240.00
7	0.70749	238.00
8	0.71194	236.00
9	0.71638	234.00
10	0.72090	232.00
11	0.73891	224.00
12	0.74739	220.00
13	0.75539	216.00
14	0.76394	212.00
15	0.76911	210.00
16	0.79480	198.00
17	0.79888	196.00
18	0.80731	192.00
19	0.81586	188.00
20	0.84540	174.00
21	0.84875	172.00
22	0.85343	170.00
23	0.86176	166.00
24	0.86614	164.00
25	0.87015	162.00
26	0.87420	160.00
27	0.88278	156.00
28	0.89053	152.00
29	0.89433	150.00
30	0.89866	148.00
31	0.90244	146.00
32	0.91042	142.00
33	0.91411	140.00
34	0.91860	138.00
35	0.92250	136.00
36	0.92640	134.00
37	0.93002	132.00
38	0.93375	130.00
39	0.93807	128.00
40	0.94188	126.00
41	0.94530	124.00
42	0.94948	122.00
43	0.95305	120.00
44	0.95705	118.00
45	0.96079	116.00
46	0.96445	114.00
47	0.96833	112.00
48	0.97172	110.00
49	0.97562	108.00
50	0.97935	106.00
51	0.98297	104.00
52	0.98628	102.00
53	0.99007	100.00
54	0.99369	98.00
55	0.99711	96.00
56	1.00079	94.00
57	1.00440	92.00
58	1.00784	90.00
59	1.01121	88.00
60	1.01486	86.00
61	1.01842	84.00
62	1.02180	82.00
63	1.02526	80.00
64	1.02867	78.00
65	1.03204	76.00
66	1.03557	74.00
67	1.03892	72.00
68	1.04245	70.00
69	1.04393	69.00
70	1.04580	68.00
71	1.04748	67.00
72	1.04916	66.00
73	1.05102	65.00
74	1.05264	64.00
75	1.05434	63.00
76	1.05607	62.00
77	1.05781	61.00
78	1.05944	60.00
79	1.06111	59.00
80	1.06277	58.00
81	1.06448	57.00
82	1.06591	56.00
83	1.06697	55.00
84	1.06941	54.00
85	1.07099	53.00
86	1.07265	52.00
87	1.07422	51.00
88	1.07577	50.00
89	1.07731	49.00
90	1.07886	48.00
91	1.08039	47.00
92	1.08181	46.00
93	1.08343	45.00
94	1.08484	44.00
95	1.08628	43.00
96	1.08784	42.00
97	1.08926	41.00
98	1.09078	40.00
99	1.09215	39.00
100	1.09365	38.00
101	1.09518	37.00
102	1.09661	36.00
103	1.09813	35.00
104	1.09960	34.00
105	1.10119	33.00
106	1.10275	32.00
107	1.10433	31.00
108	1.10598	30.00
109	1.10779	29.00
110	1.10968	28.00
111	1.11192	27.00
112	1.11469	26.00
113	1.11817	25.00
114	1.12362	24.00
115	1.13287	23.00
116	1.15228	22.00
117	1.17654	21.00
118	1.19718	20.00
119	1.21589	19.00
120	1.23383	18.00
121	1.25176	17.00
122	1.27054	16.00
123	1.29039	15.00
124	1.31196	14.00
125	1.33518	13.00
126	1.36116	12.00
127	1.39064	11.00
128	1.42433	10.00
129	1.46559	9.00
130	1.51570	8.00
131	1.57364	7.00
132	1.63458	6.00
133	1.68987	5.00
134	1.73826	4.00
135	1.77717	3.00
136	1.80308	2.00
